#time #Theta_ENU(deg)
0.000000       -7.270000
0.200000       -7.280000
0.400000       -7.280000
0.600000       -7.280000
0.800000       -7.280000
1.000000       -7.190000
1.200000       -7.190000
1.400000       -7.190000
1.600000       -7.190000
1.800000       -7.190000
2.000000       -7.190000
2.200000       -7.190000
2.400000       -7.470000
2.600000       -7.470000
2.800000       -7.470000
3.000000       -7.470000
3.200000       -7.470000
3.400000       -7.470000
3.600000       -6.790000
3.800000       -6.830000
4.000000       -6.830000
4.200000       -6.820000
4.400000       -6.810000
4.600000       -6.810000
4.800000       -6.810000
5.000000       -6.800000
5.200000       -6.800000
5.400000       -6.800000
5.600000       -6.800000
5.800000       -6.800000
6.000000       -6.790000
6.200000       -6.790000
6.400000       -6.780000
6.600000       -6.780000
6.800000       -6.780000
7.000000       -7.690000
7.200000       -7.160000
7.400000       -7.420000
7.600000       -7.530000
7.800000       -7.670000
8.000000       -7.790000
8.200000       -7.830000
8.400000       -8.020000
8.600000       -8.070000
8.800000       -8.230000
9.000000       -8.340000
9.200000       -8.580000
9.400000       -8.700000
9.600000       -8.710000
9.800000       -8.690000
10.000000       -8.690000
10.200000       -9.490000
10.400000       -9.720000
10.600000       -9.720000
10.800000       -9.650000
11.000000       -9.650000
11.200000       -9.650000
11.400000       -9.650000
11.600000       -9.650000
11.800000       -9.810000
12.000000       -9.840000
12.200000       -9.740000
12.400000       -9.790000
12.600000       -9.730000
12.800000       -9.730000
13.000000       -9.680000
13.200000       -9.680000
13.400000       -9.610000
13.600000       -9.510000
13.800000       -9.560000
14.000000       -9.420000
14.200000       -9.310000
14.400000       -9.210000
14.600000       -9.030000
14.800000       -9.020000
15.000000       -8.670000
15.200000       -8.460000
15.400000       -8.410000
15.600000       -8.150000
15.800000       -7.880000
16.000000       -7.830000
16.200000       -7.470000
16.400000       -7.330000
16.600000       -7.010000
16.800000       -7.010000
17.000000       -6.460000
17.200000       -6.460000
17.400000       -6.000000
17.600000       -5.790000
17.800000       -5.440000
18.000000       -5.440000
18.200000       -5.090000
18.400000       -4.850000
18.600000       -4.850000
18.800000       -4.760000
19.000000       -4.650000
19.200000       -4.400000
19.400000       -4.400000
19.600000       -4.170000
19.800000       -4.190000
20.000000       -3.930000
20.200000       -3.320000
20.400000       -3.320000
20.600000       -3.320000
20.800000       -3.320000
21.000000       -3.320000
21.200000       -2.370000
21.400000       -2.370000
21.600000       -2.370000
21.800000       -2.370000
22.000000       -1.070000
22.200000       -1.070000
22.400000       -1.390000
22.600000       -1.390000
22.800000       -1.440000
23.000000       -1.530000
23.200000       -1.540000
23.400000       -1.540000
23.600000       -1.600000
23.800000       -1.690000
24.000000       -1.640000
24.200000       -1.700000
24.400000       -1.660000
24.600000       -1.660000
24.800000       -1.600000
25.000000       -1.600000
25.200000       -1.730000
25.400000       -1.850000
25.600000       -1.850000
25.800000        0.500000
26.000000        0.500000
26.200000        2.680000
26.400000        2.680000
26.600000        2.710000
26.800000        2.730000
27.000000        2.780000
27.200000        2.780000
27.400000        2.810000
27.600000        2.840000
27.800000        2.870000
28.000000        2.900000
28.200000        2.930000
28.400000        2.950000
28.600000        3.010000
28.800000        3.030000
29.000000        3.060000
29.200000        3.060000
29.400000        3.120000
29.600000        3.120000
29.800000        3.140000
30.000000        3.170000
30.200000        3.430000
30.400000        3.450000
30.600000        3.450000
30.800000        3.480000
31.000000        3.480000
31.200000        3.480000
31.400000        3.500000
31.600000        3.500000
31.800000        3.530000
32.000000        3.530000
32.200000        3.600000
32.400000        3.600000
32.600000        3.600000
32.800000        3.600000
33.000000       14.110000
33.200000       14.110000
33.400000       42.920000
33.600000       57.420000
33.800000       57.420000
34.000000       71.730000
34.200000       85.810000
34.400000      100.360000
34.600000      114.710000
34.800000      124.870000
35.000000      127.110000
35.200000      125.870000
35.400000      125.990000
35.600000      126.190000
35.800000      126.310000
36.000000      126.550000
36.200000      126.550000
36.400000      126.810000
36.600000      126.810000
36.800000      127.000000
37.000000      127.000000
37.200000      127.230000
37.400000      127.230000
37.600000      127.450000
37.800000      127.540000
38.000000      127.560000
38.200000      127.560000
38.400000      127.650000
38.600000      127.650000
38.800000      127.770000
39.000000      127.760000
39.200000      127.840000
39.400000      127.840000
39.600000      127.800000
39.800000      127.920000
40.000000      127.940000
40.200000      127.990000
40.400000      127.990000
40.600000      127.990000
40.800000      127.990000
41.000000      128.150000
41.200000      128.150000
41.400000      128.150000
41.600000      128.150000
41.800000      128.270000
42.000000      128.270000
42.200000      128.270000
42.400000      128.270000
42.600000      128.070000
42.800000      128.070000
43.000000      128.140000
43.200000      128.130000
43.400000      128.170000
43.600000      128.210000
43.800000      128.260000
44.000000      128.260000
44.200000      128.260000
44.400000      128.300000
44.600000      128.200000
44.800000      127.950000
45.000000      127.820000
45.200000      127.860000
45.400000      127.730000
45.600000      127.590000
45.800000      127.710000
46.000000      127.710000
46.200000      127.840000
46.400000      127.840000
46.600000      127.830000
46.800000      127.950000
47.000000      128.000000
47.200000      128.000000
47.400000      127.960000
47.600000      128.040000
47.800000      128.010000
48.000000      128.040000
48.200000      127.890000
48.400000      127.890000
48.600000      127.830000
48.800000      127.830000
49.000000      127.650000
49.200000      127.650000
49.400000      127.660000
49.600000      127.660000
49.800000      127.330000
50.000000      126.970000
50.200000      127.480000
50.400000      127.480000
50.600000      127.480000
50.800000      127.480000
51.000000      127.480000
51.200000      127.480000
51.400000      127.640000
51.600000      127.630000
51.800000      127.630000
52.000000      127.630000
52.200000      127.760000
52.400000      127.910000
52.600000      127.910000
52.800000      127.910000
53.000000      127.910000
53.200000      128.390000
53.400000      128.390000
53.600000      128.390000
53.800000      128.630000
54.000000      128.730000
54.200000      128.870000
54.400000      128.880000
54.600000      128.880000
54.800000      129.020000
55.000000      129.230000
55.200000      129.320000
55.400000      129.320000
55.600000      129.410000
55.800000      129.410000
56.000000      129.710000
56.200000      129.710000
56.400000      129.810000
56.600000      129.810000
56.800000      129.960000
57.000000      130.120000
57.200000      130.070000
57.400000      130.160000
57.600000      130.170000
57.800000      130.240000
58.000000      130.240000
58.200000      130.320000
58.400000      130.320000
58.600000      130.370000
58.800000      130.330000
59.000000      130.360000
59.200000      130.420000
59.400000      130.440000
59.600000      130.330000
59.800000      130.330000
60.000000      130.420000
60.200000      130.480000
60.400000      130.550000
60.600000      130.630000
60.800000      130.630000
61.000000      130.630000
61.200000      130.630000
61.400000      130.630000
61.600000      130.630000
61.800000      130.630000
62.000000      130.630000
62.200000      130.630000
62.400000      130.630000
62.600000      130.390000
62.800000      130.390000
63.000000      130.210000
63.200000      130.050000
63.400000      130.010000
63.600000      130.010000
63.800000      130.010000
64.000000      130.160000
64.200000      130.160000
64.400000      129.940000
64.600000      129.940000
64.800000      132.750000
65.000000      132.800000
65.200000      132.850000
65.400000      132.890000
65.600000      132.890000
65.800000      132.980000
66.000000      132.980000
66.200000      133.060000
66.400000      133.060000
66.600000      133.150000
66.800000      133.190000
67.000000      133.240000
67.200000      133.280000
67.400000      133.280000
67.600000      133.360000
67.800000      133.360000
68.000000      133.440000
68.200000      133.440000
68.400000      133.530000
68.600000      133.570000
68.800000      133.610000
69.000000      133.650000
69.200000      133.650000
69.400000      155.540000
69.600000      155.540000
69.800000     -177.200000
70.000000     -177.200000
70.200000      -57.040000
70.400000      -57.040000
70.600000      -57.040000
70.800000      -57.040000
71.000000      -57.040000
71.200000      -57.040000
71.400000      -57.040000
71.600000      -57.040000
71.800000      -43.820000
72.000000      -35.030000
72.200000      -51.770000
72.400000      -64.740000
72.600000      -64.740000
72.800000      -83.730000
73.000000      -91.620000
73.200000     -100.850000
73.400000     -103.110000
73.600000     -104.440000
73.800000     -104.770000
74.000000     -105.060000
74.200000     -105.130000
74.400000     -105.300000
74.600000     -105.300000
74.800000     -105.650000
75.000000     -105.650000
75.200000     -105.860000
75.400000     -106.360000
75.600000     -107.200000
75.800000     -107.780000
76.000000     -108.080000
76.200000     -108.080000
76.400000     -108.740000
76.600000     -108.740000
76.800000     -108.910000
77.000000     -109.110000
77.200000     -109.500000
77.400000     -109.500000
77.600000     -109.750000
77.800000     -110.100000
78.000000     -110.280000
78.200000     -110.430000
78.400000     -110.630000
78.600000     -110.580000
78.800000     -110.510000
79.000000     -110.370000
79.200000     -110.160000
79.400000     -109.970000
79.600000     -109.500000
79.800000     -109.300000
80.000000     -108.930000
80.200000     -104.220000
80.400000     -104.220000
80.600000     -104.220000
80.800000     -104.220000
81.000000      -99.860000
81.200000      -99.860000
81.400000      -99.860000
81.600000      -99.860000
81.800000      -99.860000
82.000000      -96.840000
82.200000      -97.740000
82.400000      -98.430000
82.600000      -98.430000
82.800000      -98.730000
83.000000      -99.070000
83.200000      -99.650000
83.400000      -99.940000
83.600000      -99.940000
83.800000      -99.970000
84.000000      -99.940000
84.200000      -99.890000
84.400000      -99.840000
84.600000      -99.890000
84.800000      -99.690000
85.000000      -99.810000
85.200000     -100.010000
85.400000     -100.090000
85.600000     -100.150000
85.800000     -100.240000
86.000000     -100.460000
86.200000     -100.460000
86.400000     -100.790000
86.600000     -100.920000
86.800000     -101.070000
87.000000     -101.070000
87.200000     -101.240000
87.400000     -101.210000
87.600000     -101.210000
87.800000     -101.260000
88.000000     -101.380000
88.200000     -101.470000
88.400000     -101.610000
88.600000     -101.790000
88.800000     -101.790000
89.000000     -102.000000
89.200000     -102.000000
89.400000     -102.050000
